# PA_bin	RadialBinCenter[kpc]	PA[deg]	RM[rad/m^2]
1	15.00	229.0822	-227.3121
1	15.00	248.9494	-368.1707
1	15.00	238.4778	-336.9060
1	15.00	251.5904	-332.3935
1	15.00	229.1860	-208.5896
1	15.00	275.6737	-325.6037
1	15.00	208.3821	-53.5748
1	15.00	182.8967	-98.3958
1	15.00	286.6214	-290.1051
1	15.00	249.1250	-310.1425
1	15.00	248.4657	-289.7531
1	15.00	172.7465	-44.6520
1	15.00	255.2526	-284.7626
1	15.00	223.9550	-198.0819
1	15.00	302.3863	-195.9823
1	15.00	134.2377	-66.8256
1	15.00	332.1416	-184.8809
1	15.00	62.1389	-140.7814
1	15.00	123.6772	-60.2826
1	15.00	3.4018	-307.1124
1	15.00	95.5604	-57.7194
1	15.00	92.7580	-64.5630
1	15.00	84.0219	-73.6277
1	15.00	93.8651	-64.1390
1	15.00	77.4761	-66.2108
1	15.00	103.1548	-99.8034
1	15.00	101.1712	-66.4691
1	15.00	62.7460	-79.0291
1	15.00	11.2645	-105.0355
1	15.00	74.9077	-41.8632
1	15.00	71.8749	-54.6913
1	15.00	27.2924	-89.5493
1	15.00	67.6122	-28.6906
2	45.00	236.2399	-183.2573
2	45.00	208.7785	-144.7494
2	45.00	252.6746	-272.5760
2	45.00	252.5569	-273.0047
2	45.00	260.1943	-242.6666
2	45.00	230.3745	-188.4295
2	45.00	265.7029	-270.5347
2	45.00	268.8240	-242.4208
2	45.00	203.7785	-98.6846
2	45.00	214.5223	-155.8382
2	45.00	200.4248	-93.8433
2	45.00	240.7213	-337.4991
2	45.00	178.8096	-89.2808
2	45.00	186.5666	-76.2882
2	45.00	283.3660	-348.5365
2	45.00	200.7032	-90.8588
2	45.00	276.1619	-376.8124
2	45.00	178.0551	-99.5646
2	45.00	179.8866	-94.1581
2	45.00	291.1482	-345.4383
2	45.00	287.1202	-354.6039
2	45.00	287.3426	-361.3134
2	45.00	170.4379	-82.0032
2	45.00	290.1715	-350.5319
2	45.00	192.4386	-83.6645
2	45.00	295.8836	-321.9061
2	45.00	176.8131	-68.4842
2	45.00	298.5422	-332.9732
2	45.00	177.9594	-67.9805
2	45.00	182.6028	-141.1670
2	45.00	182.3018	-117.6067
2	45.00	299.4748	-284.0038
2	45.00	162.2870	-81.7230
2	45.00	163.1388	-83.5680
2	45.00	154.5946	-64.1307
2	45.00	162.6868	-78.8967
2	45.00	153.3880	-53.9076
2	45.00	146.7304	-45.2901
2	45.00	144.0627	-95.4139
2	45.00	139.4324	-91.3787
2	45.00	138.0862	-68.9613
2	45.00	137.0440	-60.8317
2	45.00	136.7336	-69.9037
2	45.00	132.6124	-59.8079
2	45.00	338.9729	-142.3187
2	45.00	125.1378	-61.1069
2	45.00	127.6985	-21.2098
2	45.00	343.5609	-167.3938
2	45.00	118.1076	-28.4698
2	45.00	347.0931	-103.8683
2	45.00	109.8518	-78.2342
2	45.00	349.8287	-97.0964
2	45.00	110.2991	-19.8245
2	45.00	2.9037	-81.0185
2	45.00	104.4006	-39.0541
2	45.00	101.1942	-11.3595
2	45.00	108.4479	-27.0884
2	45.00	45.6832	-25.6894
2	45.00	45.8643	-53.1141
2	45.00	4.6035	-13.4450
2	45.00	86.5492	-1.3574
2	45.00	86.6575	-44.8271
2	45.00	77.3386	-43.1074
2	45.00	64.8216	-75.0565
2	45.00	33.4794	-32.5852
3	75.00	238.5898	58.6962
3	75.00	249.0159	46.5104
3	75.00	248.4265	15.1696
3	75.00	255.4701	-53.0710
3	75.00	222.5635	-48.9349
3	75.00	211.8186	-67.7697
3	75.00	225.6568	-25.6265
3	75.00	206.2982	-91.2919
3	75.00	224.4223	-80.4457
3	75.00	280.7650	-145.1388
3	75.00	269.9487	-150.3948
3	75.00	258.4677	-197.9138
3	75.00	278.4477	-191.8107
3	75.00	285.8668	-208.8606
3	75.00	286.4084	-210.0434
3	75.00	183.4135	-90.9672
3	75.00	277.0736	-264.5283
3	75.00	289.5171	-263.9644
3	75.00	290.2506	-310.1126
3	75.00	167.7380	-60.3891
3	75.00	290.3867	-357.5488
3	75.00	166.3032	-88.1197
3	75.00	170.9108	-101.4203
3	75.00	293.2799	-382.6433
3	75.00	293.4559	-387.0367
3	75.00	166.4818	-51.3620
3	75.00	161.0122	-78.4174
3	75.00	159.0691	-66.7351
3	75.00	158.9416	-78.7705
3	75.00	305.3449	-309.5536
3	75.00	159.5883	-57.9082
3	75.00	306.5984	-293.3620
3	75.00	151.2646	-101.3360
3	75.00	312.7536	-264.0312
3	75.00	149.8793	-120.6258
3	75.00	145.8217	-57.4978
3	75.00	145.5323	-72.3444
3	75.00	318.8890	-264.4828
3	75.00	322.0901	-213.0133
3	75.00	323.4967	-158.7010
3	75.00	327.5240	-190.0849
3	75.00	137.8211	-71.9105
3	75.00	137.7599	-84.8776
3	75.00	333.1622	-153.0948
3	75.00	340.5876	-97.3479
3	75.00	342.5210	-103.4775
3	75.00	344.8552	-62.3755
3	75.00	119.0446	-42.3217
3	75.00	107.4572	9.9837
3	75.00	113.4780	-71.3168
3	75.00	1.6321	-5.7959
3	75.00	13.8890	26.5403
3	75.00	359.1617	3.6062
3	75.00	11.8284	-7.1639
3	75.00	17.6698	-3.9431
3	75.00	100.1545	-27.2525
3	75.00	12.9836	17.4445
3	75.00	16.9409	15.2243
3	75.00	89.0431	-5.1953
3	75.00	76.6945	-60.2169
3	75.00	10.5978	46.8588
3	75.00	88.7645	-22.9235
3	75.00	18.1349	32.8959
3	75.00	38.9072	5.7154
3	75.00	17.6360	35.5239
3	75.00	17.7948	37.9925
3	75.00	20.4651	12.7873
3	75.00	68.5291	-31.4078
3	75.00	84.6511	-7.1983
3	75.00	68.6188	-35.9156
3	75.00	91.6982	-28.8011
3	75.00	91.6629	-27.7570
3	75.00	89.2764	-58.0930
3	75.00	26.5336	22.8278
3	75.00	69.1954	-22.4816
3	75.00	31.2182	-35.9988
3	75.00	49.4063	-44.5906
3	75.00	47.9831	-77.8861
3	75.00	48.0782	-70.6713
3	75.00	77.0925	-28.8245
3	75.00	62.9833	-10.3515
3	75.00	24.7858	22.2758
3	75.00	34.1679	-22.9947
3	75.00	42.9983	-44.9203
3	75.00	63.7691	-29.0513
3	75.00	64.2333	-67.8973
4	105.00	247.8203	236.0623
4	105.00	215.1453	-124.1835
4	105.00	233.4022	175.1885
4	105.00	252.9257	212.3925
4	105.00	227.4767	52.8513
4	105.00	218.1333	-93.0677
4	105.00	218.0937	-102.6502
4	105.00	246.9644	174.0398
4	105.00	203.1310	-92.8593
4	105.00	199.8561	-104.7105
4	105.00	226.9784	17.3411
4	105.00	253.7298	139.2730
4	105.00	241.3010	139.6371
4	105.00	197.7046	-46.1936
4	105.00	251.8847	114.3623
4	105.00	227.7609	27.6340
4	105.00	255.9790	108.9990
4	105.00	206.4574	-145.9349
4	105.00	195.1525	-74.5410
4	105.00	207.5974	-126.6878
4	105.00	207.6616	-115.0232
4	105.00	191.6622	-65.2764
4	105.00	186.8408	-57.5815
4	105.00	276.7393	-5.8899
4	105.00	274.9730	23.9944
4	105.00	273.3002	-40.2327
4	105.00	181.1181	-57.7712
4	105.00	182.5647	-38.9804
4	105.00	271.9775	-31.9965
4	105.00	181.2582	-30.4441
4	105.00	282.1265	-87.7305
4	105.00	186.5578	-15.0203
4	105.00	286.5641	-111.7163
4	105.00	276.0170	-118.9091
4	105.00	178.2908	-42.5444
4	105.00	282.4402	-93.9603
4	105.00	175.8975	-36.3085
4	105.00	292.2379	-218.9777
4	105.00	171.5514	-35.8299
4	105.00	286.1777	-220.7653
4	105.00	170.4814	-51.4642
4	105.00	297.8766	-251.8369
4	105.00	297.8323	-267.9365
4	105.00	168.3127	-69.5769
4	105.00	163.7594	-64.4233
4	105.00	164.0479	-41.4691
4	105.00	157.3662	-136.1665
4	105.00	153.6693	-67.7612
4	105.00	312.7240	-296.8044
4	105.00	150.0627	-70.1025
4	105.00	149.5262	-67.2698
4	105.00	148.9771	-98.8086
4	105.00	147.4235	-66.8909
4	105.00	146.8495	-74.6668
4	105.00	318.1830	-257.2449
4	105.00	146.4823	-76.0070
4	105.00	320.1789	-208.6769
4	105.00	320.4328	-223.6664
4	105.00	143.4782	-51.3947
4	105.00	143.4469	-63.7734
4	105.00	321.0705	-203.0306
4	105.00	321.5636	-231.4552
4	105.00	134.6725	-63.1625
4	105.00	133.6825	-81.6212
4	105.00	131.4606	-63.7353
4	105.00	334.7558	-144.1022
4	105.00	335.6907	-109.7839
4	105.00	335.7769	-107.9600
4	105.00	125.8299	-24.4910
4	105.00	123.1039	-39.4334
4	105.00	337.7755	-79.7972
4	105.00	338.6708	-63.2450
4	105.00	344.2941	-52.9456
4	105.00	340.2811	-38.6089
4	105.00	340.4483	-47.1938
4	105.00	122.3683	-36.3299
4	105.00	341.3271	-22.3194
4	105.00	117.5470	-33.9169
4	105.00	118.0130	-73.5027
4	105.00	343.8974	-34.5611
4	105.00	119.7120	-42.4039
4	105.00	118.7747	-25.7784
4	105.00	351.9285	29.2129
4	105.00	108.8326	-41.7967
4	105.00	353.2800	-14.3364
4	105.00	351.8512	-7.4175
4	105.00	111.5642	-11.9704
4	105.00	109.3983	-54.0981
4	105.00	102.3746	-7.1278
4	105.00	355.4718	12.4184
4	105.00	0.7812	-1.8321
4	105.00	98.8703	-27.1545
4	105.00	101.1361	20.3766
4	105.00	92.8475	-29.0794
4	105.00	5.0701	3.8363
4	105.00	100.1035	16.5896
4	105.00	91.8157	2.7272
4	105.00	97.4246	-22.9792
4	105.00	95.6939	-6.6649
4	105.00	89.6749	22.5755
4	105.00	31.9795	-9.4868
4	105.00	92.5960	13.8939
4	105.00	15.5444	71.8465
4	105.00	12.6053	8.0424
4	105.00	12.5323	12.3777
4	105.00	82.1617	-2.3141
4	105.00	82.0090	11.1089
4	105.00	74.0144	-39.5049
4	105.00	32.4425	38.2819
4	105.00	40.1669	-17.8497
4	105.00	83.7471	7.1716
4	105.00	43.5714	-17.4441
4	105.00	79.1543	-34.7171
4	105.00	78.5793	-58.6873
4	105.00	48.9043	-50.5680
4	105.00	29.1219	56.2988
4	105.00	30.6432	52.1430
4	105.00	64.9238	-26.1366
4	105.00	76.4944	-23.9218
4	105.00	41.4091	11.2128
4	105.00	41.6752	-13.4168
4	105.00	70.1243	-31.4546
4	105.00	65.1793	0.5010
4	105.00	57.0599	-10.8655
4	105.00	222.0441	22.8250
4	105.00	243.8226	61.9405
4	105.00	247.5883	85.7452
4	105.00	225.8796	-9.8127
4	105.00	215.9932	-56.4938
4	105.00	212.5188	-75.0497
5	135.00	269.6083	181.2826
5	135.00	197.5455	-23.9097
5	135.00	197.2293	-31.5948
5	135.00	270.3399	135.1955
5	135.00	194.8181	-38.7640
5	135.00	278.3038	170.1826
5	135.00	181.8318	-25.9243
5	135.00	277.0782	92.4643
5	135.00	272.2541	114.2078
5	135.00	276.6028	146.6472
5	135.00	283.0688	230.9789
5	135.00	187.1632	-19.7326
5	135.00	188.3672	-28.8534
5	135.00	182.8021	-64.3928
5	135.00	179.4192	-21.8226
5	135.00	179.4786	-22.9293
5	135.00	282.1374	26.3149
5	135.00	282.4554	33.8709
5	135.00	283.7730	40.4714
5	135.00	175.2179	-7.9513
5	135.00	175.1735	-7.9090
5	135.00	175.1484	-9.6761
5	135.00	289.5456	75.0847
5	135.00	286.2207	29.8477
5	135.00	181.0721	-24.3667
5	135.00	174.2952	15.0159
5	135.00	173.3385	-44.5173
5	135.00	176.3536	-31.0772
5	135.00	171.8738	-25.0132
5	135.00	288.6129	-93.2911
5	135.00	288.6459	-113.0856
5	135.00	293.4307	-44.7436
5	135.00	171.9745	31.4261
5	135.00	171.9115	-15.8095
5	135.00	172.6692	-25.1851
5	135.00	290.6601	-114.5197
5	135.00	169.9002	-26.1065
5	135.00	163.3759	-41.4125
5	135.00	165.9604	-39.5163
5	135.00	298.7225	-262.4529
5	135.00	164.1106	-48.3428
5	135.00	301.4424	-260.1813
5	135.00	301.5370	-279.0989
5	135.00	300.6109	-278.6448
5	135.00	163.7861	-42.8495
5	135.00	161.2944	-70.3023
5	135.00	157.2869	-53.1476
5	135.00	157.7158	-64.6169
5	135.00	308.9347	-354.4940
5	135.00	310.0082	-339.4403
5	135.00	310.5773	-327.3354
5	135.00	150.2197	-51.0503
5	135.00	149.3849	-70.6365
5	135.00	149.0352	-51.3732
5	135.00	149.0818	-65.2414
5	135.00	317.3619	-303.3694
5	135.00	144.5113	-42.9137
5	135.00	144.4675	-70.5818
5	135.00	144.0537	-74.6189
5	135.00	142.7809	-40.6633
5	135.00	322.4550	-239.3058
5	135.00	142.0617	-53.9959
5	135.00	322.7090	-230.4660
5	135.00	140.8737	-50.4266
5	135.00	325.2262	-170.9138
5	135.00	138.7735	-72.4023
5	135.00	137.7326	-27.8204
5	135.00	137.7804	-52.8008
5	135.00	134.7271	-16.4358
5	135.00	330.1882	-124.0603
5	135.00	330.3635	-101.1880
5	135.00	331.1604	-90.1764
5	135.00	331.1921	-84.7717
5	135.00	133.0585	-46.9372
5	135.00	133.0435	-47.4354
5	135.00	131.8172	-99.1018
5	135.00	131.1957	-54.5982
5	135.00	131.3935	-41.0863
5	135.00	130.5286	-46.6392
5	135.00	335.9167	-60.3081
5	135.00	336.5387	-38.2585
5	135.00	338.4852	-18.9310
5	135.00	126.0798	-16.6756
5	135.00	124.9565	-37.4782
5	135.00	123.6512	-34.4485
5	135.00	340.8802	-33.3033
5	135.00	340.4696	-31.9578
5	135.00	124.2954	-52.2614
5	135.00	344.1806	-36.9851
5	135.00	122.7021	-34.1108
5	135.00	343.0495	23.4016
5	135.00	344.0982	-25.0784
5	135.00	343.5365	77.6153
5	135.00	119.9772	-26.0205
5	135.00	120.6595	-52.6850
5	135.00	118.4441	-51.9466
5	135.00	350.9960	-32.2920
5	135.00	111.2435	-6.6430
5	135.00	114.9683	-39.5618
5	135.00	347.6581	-10.5603
5	135.00	114.6122	-25.3200
5	135.00	109.0677	-22.5207
5	135.00	114.0038	0.8525
5	135.00	109.5743	-1.5210
5	135.00	357.1829	-33.7510
5	135.00	357.1877	-5.4250
5	135.00	108.1733	-47.4301
5	135.00	356.8723	-13.4800
5	135.00	111.0382	-17.4522
5	135.00	357.3196	-40.9085
5	135.00	1.2451	-2.4316
5	135.00	102.5710	-5.4645
5	135.00	95.7893	41.1521
5	135.00	16.0508	20.3593
5	135.00	84.7850	36.3754
5	135.00	8.9585	3.9937
5	135.00	8.8129	10.2452
5	135.00	16.8081	29.8472
5	135.00	9.1499	-24.4235
5	135.00	13.8332	-10.3375
5	135.00	13.6786	-39.3321
5	135.00	26.3835	66.5459
5	135.00	21.5930	33.2108
5	135.00	93.0795	48.5568
5	135.00	79.7639	38.5143
5	135.00	91.3588	27.1934
5	135.00	33.4355	54.4695
5	135.00	45.3394	-17.1641
5	135.00	18.4205	9.8664
5	135.00	84.8178	61.1877
5	135.00	61.2566	-2.2508
5	135.00	48.1134	-24.8618
5	135.00	72.2375	-119.2128
5	135.00	65.7435	7.7963
5	135.00	43.4302	17.0041
5	135.00	71.3170	13.1089
5	135.00	26.5216	46.7953
5	135.00	35.9403	14.7283
5	135.00	72.1415	36.6133
5	135.00	72.7554	18.0412
5	135.00	25.0977	6.3454
5	135.00	67.5876	-3.7186
5	135.00	67.4689	-20.1702
5	135.00	74.8130	20.3943
5	135.00	74.7164	8.6360
5	135.00	43.3398	-13.1118
5	135.00	41.8020	-14.0279
5	135.00	41.7727	-3.3068
5	135.00	69.5626	37.9186
5	135.00	58.5990	-28.3184
5	135.00	63.9598	-27.8829
5	135.00	63.8873	-25.5674
5	135.00	60.3100	-32.3002
5	135.00	56.3508	-47.0818
5	135.00	232.9765	48.5533
5	135.00	234.9163	74.6557
5	135.00	228.8827	64.8414
5	135.00	214.5826	-25.0132
5	135.00	251.6452	52.2068
5	135.00	254.6583	56.6994
5	135.00	223.9476	19.1126
5	135.00	215.7008	-26.6588
5	135.00	229.8340	57.4415
5	135.00	241.8609	57.4594
5	135.00	254.5796	89.2064
5	135.00	218.9216	-34.8620
5	135.00	222.3544	8.5014
5	135.00	222.3110	17.6019
5	135.00	206.7927	-73.0380
5	135.00	255.8050	72.7888
5	135.00	242.3907	34.6308
5	135.00	213.4255	-41.2646
5	135.00	246.7821	92.5540
5	135.00	259.4105	61.4890
5	135.00	265.6815	-39.2600
5	135.00	197.5771	-38.5305
5	135.00	267.5641	-57.9122
5	135.00	201.7762	-74.8696
6	165.00	186.9480	-39.0359
6	165.00	184.3129	-22.5140
6	165.00	179.8518	-3.3796
6	165.00	183.6724	-25.2713
6	165.00	179.6672	-34.1968
6	165.00	177.0650	-19.0736
6	165.00	181.8562	-48.8912
6	165.00	177.2573	-6.1178
6	165.00	285.3237	188.1207
6	165.00	179.5265	-16.3069
6	165.00	172.0679	-28.4371
6	165.00	169.9158	-12.8032
6	165.00	170.7805	8.9672
6	165.00	294.7708	-3.9856
6	165.00	297.3123	-49.7687
6	165.00	169.8069	-39.2142
6	165.00	168.1643	-26.8021
6	165.00	165.5370	-57.5016
6	165.00	297.5989	-61.9660
6	165.00	165.0392	-44.0911
6	165.00	300.3900	-105.5024
6	165.00	166.4608	-68.0906
6	165.00	163.3606	-74.7584
6	165.00	166.2126	-49.3687
6	165.00	300.2625	-151.8052
6	165.00	162.7253	-72.1879
6	165.00	159.3989	-79.2310
6	165.00	159.3778	-89.5521
6	165.00	158.3161	-55.0203
6	165.00	306.8958	-259.9803
6	165.00	306.7484	-299.1617
6	165.00	154.7825	-73.5859
6	165.00	154.2179	-49.2791
6	165.00	154.8396	-84.0218
6	165.00	153.7228	-56.6432
6	165.00	312.2129	-389.9527
6	165.00	152.0884	-48.2702
6	165.00	150.4041	-50.1995
6	165.00	314.1230	-366.7417
6	165.00	148.9736	-44.9966
6	165.00	148.3023	-38.6981
6	165.00	317.3540	-340.5039
6	165.00	318.4253	-316.0497
6	165.00	145.7428	-48.6872
6	165.00	145.7067	-44.2801
6	165.00	142.3833	-32.7717
6	165.00	324.4294	-226.9410
6	165.00	324.5416	-250.9873
6	165.00	324.3805	-204.1760
6	165.00	139.0361	-40.7791
6	165.00	135.2491	-22.8122
6	165.00	133.8590	-60.5982
6	165.00	332.3471	-93.9550
6	165.00	132.3589	-46.0140
6	165.00	127.7918	-33.6789
6	165.00	337.4739	-28.4219
6	165.00	124.9828	-47.4589
6	165.00	124.7266	1.5607
6	165.00	122.2872	-77.5669
6	165.00	340.6160	15.8766
6	165.00	346.6116	15.9704
6	165.00	350.7456	-25.3577
6	165.00	115.6179	-23.9642
6	165.00	115.5538	-20.0625
6	165.00	111.0096	-35.5132
6	165.00	354.7251	-66.6136
6	165.00	110.5462	-27.7340
6	165.00	111.0584	-38.2064
6	165.00	104.6875	-18.3591
6	165.00	356.9260	-19.9676
6	165.00	355.5344	-52.1612
6	165.00	100.8241	-13.9676
6	165.00	99.4854	16.8430
6	165.00	100.5488	6.9200
6	165.00	0.7606	41.9763
6	165.00	96.5088	30.1628
6	165.00	9.5644	-5.3106
6	165.00	98.1229	-11.5538
6	165.00	3.9917	-5.5091
6	165.00	98.9390	9.1331
6	165.00	98.9263	2.2029
6	165.00	12.3824	-19.2612
6	165.00	96.6677	46.4250
6	165.00	8.7984	4.1607
6	165.00	14.4594	-5.7341
6	165.00	92.0685	61.1031
6	165.00	93.3779	26.1814
6	165.00	22.0277	-33.6654
6	165.00	27.7780	5.8227
6	165.00	22.9198	-31.8372
6	165.00	76.4420	8.4646
6	165.00	16.0064	-25.8576
6	165.00	30.1618	-22.5030
6	165.00	72.4013	10.7376
6	165.00	18.1131	-53.6941
6	165.00	69.3873	-32.8304
6	165.00	36.4861	11.0878
6	165.00	72.9192	-39.4988
6	165.00	27.4669	-56.5365
6	165.00	70.4430	-5.3304
6	165.00	67.3433	-61.5868
6	165.00	56.1924	-25.2400
6	165.00	44.1113	-15.7654
6	165.00	68.5321	-14.7756
6	165.00	58.0286	-58.8788
6	165.00	63.2365	-20.3832
6	165.00	50.2932	-14.5466
6	165.00	61.5058	-25.9627
6	165.00	27.4675	-87.5613
6	165.00	49.2342	-9.7139
6	165.00	35.1812	-2.2879
6	165.00	74.8752	-13.1328
6	165.00	40.5986	-6.1631
6	165.00	40.4995	-5.9264
6	165.00	51.4887	-5.8401
6	165.00	31.4532	-14.8648
6	165.00	31.5746	-4.6305
6	165.00	35.5708	2.2356
6	165.00	32.8039	-33.7419
6	165.00	47.2127	19.6364
6	165.00	48.1804	-15.3712
6	165.00	69.8765	-17.2882
6	165.00	32.9312	-3.9056
6	165.00	40.4704	1.0393
6	165.00	40.4113	-7.1428
6	165.00	40.4200	-12.0430
6	165.00	63.4624	-26.7719
6	165.00	62.9160	-36.6491
6	165.00	44.7508	-46.1490
6	165.00	237.4415	103.3121
6	165.00	228.3020	59.3815
6	165.00	220.2315	70.1883
6	165.00	232.8348	92.3096
6	165.00	234.9860	84.8491
6	165.00	221.5827	77.7402
6	165.00	232.4005	74.0472
6	165.00	219.1774	54.8345
6	165.00	214.0331	17.2330
6	165.00	251.9532	63.9058
6	165.00	235.0412	74.3221
6	165.00	206.7245	25.0491
6	165.00	217.8746	6.5733
6	165.00	233.1574	68.3424
6	165.00	249.2513	40.6872
6	165.00	250.3206	56.3642
6	165.00	246.3190	42.5287
6	165.00	244.1611	61.6865
6	165.00	252.8435	47.0958
6	165.00	264.2336	0.1337
6	165.00	208.4502	-17.6230
6	165.00	212.2773	-38.7191
6	165.00	203.5936	-37.7871
6	165.00	203.6062	-34.7112
6	165.00	248.8990	86.4301
6	165.00	200.2373	7.4934
6	165.00	200.2638	6.4114
6	165.00	261.5801	8.3718
6	165.00	200.9031	-42.0820
6	165.00	266.4104	12.0318
6	165.00	201.4024	-25.2130
6	165.00	259.8758	46.7118
6	165.00	205.6242	-49.4107
6	165.00	195.7706	6.8156
6	165.00	269.9921	4.8101
6	165.00	202.5435	-12.7527
6	165.00	273.7756	33.0700
6	165.00	189.3637	-9.3655
6	165.00	193.0771	-29.9797
6	165.00	272.2199	24.9279
6	165.00	265.4821	8.7147
6	165.00	187.9784	-32.5653
6	165.00	192.1650	20.8127
6	165.00	192.0706	3.8321
6	165.00	273.7085	34.4693
6	165.00	187.0695	-11.4349
6	165.00	276.8465	14.0168
6	165.00	274.1338	-34.3415
6	165.00	181.1562	-24.0000
7	195.00	179.0245	-5.6000
7	195.00	175.0535	-54.7000
7	195.00	175.9102	-41.0400
7	195.00	176.4722	-10.5706
7	195.00	176.8827	-7.7159
7	195.00	290.5152	173.4130
7	195.00	173.1083	-77.9923
7	195.00	174.0911	-87.6946
7	195.00	170.9128	-51.8101
7	195.00	292.9432	109.6727
7	195.00	296.0380	5.2644
7	195.00	300.7825	-60.3756
7	195.00	300.1495	-60.1872
7	195.00	164.3182	-14.1238
7	195.00	301.5736	-159.1497
7	195.00	165.1008	-65.2754
7	195.00	162.4826	-88.8671
7	195.00	159.2349	-72.4709
7	195.00	158.6388	-76.7566
7	195.00	160.0548	-94.3648
7	195.00	158.0182	-75.7184
7	195.00	158.1898	-65.4809
7	195.00	157.3216	-37.5479
7	195.00	156.5058	-86.4952
7	195.00	308.4644	-301.7162
7	195.00	156.1762	-78.3684
7	195.00	156.1176	-41.8339
7	195.00	155.6310	-71.0446
7	195.00	152.7850	-50.1363
7	195.00	151.9498	-50.6205
7	195.00	313.2705	-410.1435
7	195.00	151.4971	-58.0494
7	195.00	150.2637	-31.4491
7	195.00	314.9513	-366.2899
7	195.00	150.0083	-46.1768
7	195.00	148.7808	-52.9735
7	195.00	316.6952	-308.6927
7	195.00	317.0244	-339.8170
7	195.00	147.2546	-66.1194
7	195.00	146.2121	-3.9955
7	195.00	318.5873	-365.4754
7	195.00	319.3763	-372.2055
7	195.00	143.5598	-37.3365
7	195.00	142.9969	-68.6145
7	195.00	142.4135	-41.7081
7	195.00	142.3340	-39.7318
7	195.00	140.8840	-44.7912
7	195.00	136.1078	-41.3701
7	195.00	134.5246	-44.7695
7	195.00	133.2804	-50.5420
7	195.00	132.8141	61.3403
7	195.00	131.4545	-16.6856
7	195.00	131.9158	4.8096
7	195.00	130.8832	-24.4988
7	195.00	131.5490	-28.0618
7	195.00	333.8162	23.6158
7	195.00	130.7067	1.2320
7	195.00	130.7052	-6.9570
7	195.00	130.6319	-3.1203
7	195.00	127.7094	-17.3968
7	195.00	127.2573	-25.3297
7	195.00	336.4679	-3.1444
7	195.00	125.3507	-25.9021
7	195.00	124.4012	-29.1573
7	195.00	123.6331	-9.1822
7	195.00	123.5274	-15.8644
7	195.00	343.3978	25.7523
7	195.00	344.8638	4.0990
7	195.00	345.1763	-5.3616
7	195.00	344.7644	37.0339
7	195.00	121.4397	-8.6344
7	195.00	343.9202	24.3901
7	195.00	346.8980	2.5181
7	195.00	119.4851	8.9744
7	195.00	347.1722	-2.4384
7	195.00	119.4333	11.0911
7	195.00	115.7986	-40.4167
7	195.00	347.8560	22.9208
7	195.00	113.5778	-22.4763
7	195.00	113.0855	-31.1346
7	195.00	115.2944	-12.5865
7	195.00	112.0640	-5.5935
7	195.00	113.7503	-29.5593
7	195.00	113.3235	-37.9526
7	195.00	112.8358	-33.7752
7	195.00	355.6555	-69.3980
7	195.00	109.5206	-15.1768
7	195.00	110.0520	-33.8327
